Patient Name         : Tom, Tomo
Patient ID           : X1234567890
Comment              : DVHs for one plan
Date                 : Samstag, 7. Juni 5069 15:09:49
Exported by          : me
Type                 : Cumulative Dose Volume Histogram
Description          : The cumulative DVH displays the percentage (relative)
                       or volume (absolute) of structures that receive a dose
                       equal to or greater than a given dose.

Plan: +HN1
Course: C1
Plan Status: Unapproved
Total dose [Gy]: 50.000
% for dose (%): 100.0

Structure: HN1
Approval Status: Unapproved
Plan: +HN1
Course: C1
Volume [cm³]: 1123.7
Dose Cover.[%]: 100.0
Sampling Cover.[%]: 100.0
Min Dose [Gy]: 0.000
Max Dose [Gy]: 56.057
Mean Dose [Gy]: 49.379
Modal Dose [Gy]: 50.373
Median Dose [Gy]: 50.101
STD [Gy]: 3.419
Equiv. Sphere Diam. [cm]: 12.9
Conformity Index: N/A
Gradient Measure [cm]: N/A
Dose Level [Gy]: 
RTOG CI: 
Paddick CI: 
GI: 
ICRU83 HI: 
D0.1cm³ [Gy]: 55.391
D2.0% [Gy]: 52.605
D2.0cm³ [Gy]: 54.301
D30.0% [Gy]: 50.656
D30.0cm³ [Gy]: 52.357
D50.0% [Gy]: 50.101
D66.0% [Gy]: 49.559
D90.0% [Gy]: 47.220
D97.0% [%]: 84.1
D98.0% [%]: 77.4
D98.0% [Gy]: 38.686
V10.0Gy [%]: 100.0
V10.0Gy [cm³]: 1123.2794
V42.0Gy [cm³]: 1090.2543
V50.0Gy [%]: 53.3
V69.3Gy [%]: 0.0
V69.3Gy [cm³]: 0.0000
: 

        Dose [Gy]   Relative dose [%] Ratio of Total Structure Volume [%]
                0                   0                       100
              0.1                 0.2                   99.9962
              0.2                 0.4                   99.9962
              0.3                 0.6                   99.9962
              0.4                 0.8                   99.9961
              0.5                   1                   99.9961
              0.6                 1.2                   99.9961
              0.7                 1.4                    99.996
              0.8                 1.6                    99.996
              0.9                 1.8                   99.9959
                1                   2                   99.9959
              1.1                 2.2                   99.9959
              1.2                 2.4                   99.9958
              1.3                 2.6                   99.9958
              1.4                 2.8                   99.9958
              1.5                   3                   99.9957
              1.6                 3.2                   99.9957
              1.7                 3.4                   99.9956
              1.8                 3.6                   99.9956
              1.9                 3.8                   99.9956
                2                   4                   99.9955
              2.1                 4.2                   99.9955
              2.2                 4.4                   99.9955
              2.3                 4.6                   99.9954
              2.4                 4.8                   99.9954
              2.5                   5                   99.9953
              2.6                 5.2                   99.9953
              2.7                 5.4                   99.9953
              2.8                 5.6                   99.9952
              2.9                 5.8                   99.9952
                3                   6                   99.9951
              3.1                 6.2                   99.9951
              3.2                 6.4                   99.9951
              3.3                 6.6                    99.995
              3.4                 6.8                    99.995
              3.5                   7                   99.9949
              3.6                 7.2                   99.9948
              3.7                 7.4                   99.9948
              3.8                 7.6                   99.9947
              3.9                 7.8                   99.9947
                4                   8                   99.9946
              4.1                 8.2                   99.9946
              4.2                 8.4                   99.9945
              4.3                 8.6                   99.9945
              4.4                 8.8                   99.9944
              4.5                   9                   99.9944
              4.6                 9.2                   99.9944
              4.7                 9.4                   99.9943
              4.8                 9.6                   99.9943
              4.9                 9.8                   99.9942
                5                  10                   99.9942
              5.1                10.2                   99.9941
              5.2                10.4                    99.994
              5.3                10.6                   99.9938
              5.4                10.8                   99.9937
              5.5                  11                   99.9936
              5.6                11.2                   99.9935
              5.7                11.4                   99.9934
              5.8                11.6                   99.9933
              5.9                11.8                   99.9933
                6                  12                   99.9932
              6.1                12.2                   99.9932
              6.2                12.4                   99.9931
              6.3                12.6                    99.993
              6.4                12.8                    99.993
              6.5                  13                   99.9929
              6.6                13.2                   99.9928
              6.7                13.4                   99.9928
              6.8                13.6                   99.9926
              6.9                13.8                   99.9923
                7                  14                    99.992
              7.1                14.2                   99.9916
              7.2                14.4                   99.9912
              7.3                14.6                   99.9909
              7.4                14.8                   99.9906
              7.5                  15                   99.9904
              7.6                15.2                   99.9903
              7.7                15.4                   99.9902
              7.8                15.6                   99.9901
              7.9                15.8                     99.99
                8                  16                   99.9899
              8.1                16.2                   99.9898
              8.2                16.4                   99.9896
              8.3                16.6                   99.9893
              8.4                16.8                   99.9888
              8.5                  17                   99.9881
              8.6                17.2                   99.9869
              8.7                17.4                   99.9855
              8.8                17.6                   99.9833
              8.9                17.8                   99.9811
                9                  18                   99.9778
              9.1                18.2                   99.9755
              9.2                18.4                   99.9729
              9.3                18.6                   99.9708
              9.4                18.8                   99.9683
              9.5                  19                   99.9662
              9.6                19.2                    99.964
              9.7                19.4                    99.962
              9.8                19.6                   99.9604
              9.9                19.8                   99.9596
               10                  20                   99.9593
             10.1                20.2                   99.9591
             10.2                20.4                   99.9588
             10.3                20.6                   99.9584
             10.4                20.8                   99.9579
             10.5                  21                   99.9575
             10.6                21.2                   99.9571
             10.7                21.4                   99.9568
             10.8                21.6                   99.9562
             10.9                21.8                   99.9558
               11                  22                   99.9554
             11.1                22.2                    99.955
             11.2                22.4                   99.9547
             11.3                22.6                   99.9544
             11.4                22.8                   99.9541
             11.5                  23                   99.9538
             11.6                23.2                   99.9534
             11.7                23.4                   99.9531
             11.8                23.6                   99.9528
             11.9                23.8                   99.9525
               12                  24                   99.9522
             12.1                24.2                   99.9519
             12.2                24.4                   99.9516
             12.3                24.6                   99.9512
             12.4                24.8                   99.9509
             12.5                  25                   99.9506
             12.6                25.2                   99.9502
             12.7                25.4                   99.9499
             12.8                25.6                   99.9496
             12.9                25.8                   99.9492
               13                  26                   99.9489
             13.1                26.2                   99.9485
             13.2                26.4                   99.9481
             13.3                26.6                   99.9477
             13.4                26.8                   99.9472
             13.5                  27                   99.9466
             13.6                27.2                   99.9458
             13.7                27.4                   99.9448
             13.8                27.6                   99.9438
             13.9                27.8                   99.9429
               14                  28                   99.9419
             14.1                28.2                    99.941
             14.2                28.4                     99.94
             14.3                28.6                   99.9392
             14.4                28.8                   99.9382
             14.5                  29                   99.9376
             14.6                29.2                   99.9369
             14.7                29.4                   99.9361
             14.8                29.6                   99.9354
             14.9                29.8                   99.9348
               15                  30                   99.9341
             15.1                30.2                   99.9333
             15.2                30.4                   99.9325
             15.3                30.6                    99.931
             15.4                30.8                   99.9293
             15.5                  31                   99.9275
             15.6                31.2                   99.9256
             15.7                31.4                   99.9238
             15.8                31.6                   99.9218
             15.9                31.8                   99.9198
               16                  32                   99.9176
             16.1                32.2                   99.9157
             16.2                32.4                    99.914
             16.3                32.6                   99.9121
             16.4                32.8                   99.9102
             16.5                  33                   99.9085
             16.6                33.2                   99.9066
             16.7                33.4                   99.9042
             16.8                33.6                   99.9019
             16.9                33.8                   99.8997
               17                  34                   99.8969
             17.1                34.2                   99.8938
             17.2                34.4                   99.8904
             17.3                34.6                   99.8873
             17.4                34.8                    99.884
             17.5                  35                   99.8801
             17.6                35.2                   99.8756
             17.7                35.4                   99.8717
             17.8                35.6                   99.8675
             17.9                35.8                   99.8627
               18                  36                   99.8573
             18.1                36.2                   99.8527
             18.2                36.4                   99.8486
             18.3                36.6                   99.8442
             18.4                36.8                   99.8405
             18.5                  37                   99.8374
             18.6                37.2                   99.8334
             18.7                37.4                   99.8294
             18.8                37.6                   99.8256
             18.9                37.8                   99.8221
               19                  38                    99.819
             19.1                38.2                   99.8157
             19.2                38.4                   99.8126
             19.3                38.6                   99.8095
             19.4                38.8                   99.8068
             19.5                  39                   99.8045
             19.6                39.2                   99.8027
             19.7                39.4                    99.801
             19.8                39.6                   99.7995
             19.9                39.8                   99.7977
               20                  40                   99.7957
             20.1                40.2                   99.7933
             20.2                40.4                   99.7908
             20.3                40.6                   99.7885
             20.4                40.8                   99.7861
             20.5                  41                   99.7835
             20.6                41.2                   99.7805
             20.7                41.4                   99.7779
             20.8                41.6                   99.7753
             20.9                41.8                   99.7729
               21                  42                   99.7702
             21.1                42.2                   99.7677
             21.2                42.4                   99.7655
             21.3                42.6                   99.7632
             21.4                42.8                   99.7611
             21.5                  43                   99.7589
             21.6                43.2                   99.7568
             21.7                43.4                   99.7547
             21.8                43.6                   99.7525
             21.9                43.8                   99.7498
               22                  44                   99.7462
             22.1                44.2                   99.7417
             22.2                44.4                   99.7373
             22.3                44.6                   99.7334
             22.4                44.8                   99.7294
             22.5                  45                   99.7253
             22.6                45.2                   99.7212
             22.7                45.4                   99.7173
             22.8                45.6                   99.7134
             22.9                45.8                   99.7095
               23                  46                   99.7049
             23.1                46.2                   99.7006
             23.2                46.4                    99.697
             23.3                46.6                   99.6933
             23.4                46.8                   99.6895
             23.5                  47                   99.6861
             23.6                47.2                   99.6828
             23.7                47.4                   99.6794
             23.8                47.6                   99.6759
             23.9                47.8                   99.6725
               24                  48                   99.6694
             24.1                48.2                   99.6664
             24.2                48.4                   99.6636
             24.3                48.6                   99.6607
             24.4                48.8                   99.6578
             24.5                  49                    99.655
             24.6                49.2                   99.6521
             24.7                49.4                   99.6484
             24.8                49.6                   99.6445
             24.9                49.8                   99.6388
               25                  50                    99.634
             25.1                50.2                   99.6296
             25.2                50.4                   99.6255
             25.3                50.6                   99.6213
             25.4                50.8                   99.6169
             25.5                  51                   99.6122
             25.6                51.2                   99.6075
             25.7                51.4                   99.6018
             25.8                51.6                   99.5967
             25.9                51.8                   99.5919
               26                  52                   99.5867
             26.1                52.2                   99.5811
             26.2                52.4                   99.5752
             26.3                52.6                    99.567
             26.4                52.8                   99.5593
             26.5                  53                   99.5504
             26.6                53.2                   99.5413
             26.7                53.4                   99.5325
             26.8                53.6                    99.523
             26.9                53.8                   99.5121
               27                  54                   99.5029
             27.1                54.2                   99.4943
             27.2                54.4                   99.4854
             27.3                54.6                   99.4766
             27.4                54.8                   99.4668
             27.5                  55                   99.4555
             27.6                55.2                   99.4432
             27.7                55.4                   99.4324
             27.8                55.6                   99.4228
             27.9                55.8                   99.4141
               28                  56                   99.4053
             28.1                56.2                    99.397
             28.2                56.4                   99.3888
             28.3                56.6                   99.3808
             28.4                56.8                    99.373
             28.5                  57                   99.3649
             28.6                57.2                   99.3563
             28.7                57.4                    99.348
             28.8                57.6                   99.3388
             28.9                57.8                   99.3283
               29                  58                   99.3175
             29.1                58.2                    99.308
             29.2                58.4                   99.2993
             29.3                58.6                    99.291
             29.4                58.8                   99.2831
             29.5                  59                   99.2757
             29.6                59.2                   99.2685
             29.7                59.4                   99.2611
             29.8                59.6                    99.254
             29.9                59.8                   99.2469
               30                  60                   99.2394
             30.1                60.2                    99.232
             30.2                60.4                   99.2248
             30.3                60.6                   99.2181
             30.4                60.8                   99.2112
             30.5                  61                   99.2044
             30.6                61.2                   99.1977
             30.7                61.4                   99.1907
             30.8                61.6                   99.1839
             30.9                61.8                   99.1774
               31                  62                    99.171
             31.1                62.2                   99.1647
             31.2                62.4                   99.1582
             31.3                62.6                   99.1516
             31.4                62.8                   99.1452
             31.5                  63                   99.1388
             31.6                63.2                   99.1322
             31.7                63.4                   99.1255
             31.8                63.6                   99.1189
             31.9                63.8                   99.1122
               32                  64                   99.1052
             32.1                64.2                   99.0981
             32.2                64.4                   99.0903
             32.3                64.6                   99.0824
             32.4                64.8                   99.0741
             32.5                  65                   99.0661
             32.6                65.2                   99.0574
             32.7                65.4                    99.048
             32.8                65.6                   99.0382
             32.9                65.8                   99.0275
               33                  66                   99.0147
             33.1                66.2                   98.9988
             33.2                66.4                   98.9861
             33.3                66.6                   98.9721
             33.4                66.8                   98.9606
             33.5                  67                    98.949
             33.6                67.2                   98.9373
             33.7                67.4                   98.9255
             33.8                67.6                   98.9133
             33.9                67.8                   98.9012
               34                  68                   98.8893
             34.1                68.2                   98.8773
             34.2                68.4                   98.8635
             34.3                68.6                   98.8502
             34.4                68.8                   98.8363
             34.5                  69                   98.8225
             34.6                69.2                   98.8089
             34.7                69.4                   98.7952
             34.8                69.6                   98.7801
             34.9                69.8                    98.766
               35                  70                   98.7503
             35.1                70.2                   98.7335
             35.2                70.4                   98.7168
             35.3                70.6                   98.7003
             35.4                70.8                   98.6834
             35.5                  71                   98.6655
             35.6                71.2                   98.6473
             35.7                71.4                   98.6284
             35.8                71.6                   98.6066
             35.9                71.8                   98.5853
               36                  72                   98.5655
             36.1                72.2                   98.5467
             36.2                72.4                    98.528
             36.3                72.6                   98.5091
             36.4                72.8                   98.4904
             36.5                  73                   98.4702
             36.6                73.2                     98.45
             36.7                73.4                   98.4294
             36.8                73.6                   98.4083
             36.9                73.8                   98.3874
               37                  74                   98.3657
             37.1                74.2                   98.3442
             37.2                74.4                   98.3227
             37.3                74.6                    98.302
             37.4                74.8                   98.2818
             37.5                  75                   98.2616
             37.6                75.2                   98.2411
             37.7                75.4                   98.2197
             37.8                75.6                   98.1994
             37.9                75.8                   98.1788
               38                  76                   98.1578
             38.1                76.2                   98.1359
             38.2                76.4                   98.1136
             38.3                76.6                   98.0918
             38.4                76.8                   98.0695
             38.5                  77                   98.0444
             38.6                77.2                   98.0204
             38.7                77.4                   97.9969
             38.8                77.6                    97.974
             38.9                77.8                   97.9514
               39                  78                   97.9281
             39.1                78.2                   97.9051
             39.2                78.4                   97.8821
             39.3                78.6                   97.8593
             39.4                78.8                   97.8362
             39.5                  79                   97.8134
             39.6                79.2                   97.7894
             39.7                79.4                   97.7642
             39.8                79.6                   97.7388
             39.9                79.8                   97.7145
               40                  80                   97.6891
             40.1                80.2                    97.664
             40.2                80.4                    97.638
             40.3                80.6                   97.6108
             40.4                80.8                   97.5837
             40.5                  81                   97.5555
             40.6                81.2                   97.5272
             40.7                81.4                    97.498
             40.8                81.6                   97.4682
             40.9                81.8                    97.437
               41                  82                   97.4053
             41.1                82.2                   97.3714
             41.2                82.4                   97.3346
             41.3                82.6                   97.2968
             41.4                82.8                   97.2588
             41.5                  83                   97.2221
             41.6                83.2                   97.1833
             41.7                83.4                   97.1442
             41.8                83.6                   97.1045
             41.9                83.8                   97.0627
               42                  84                   97.0204
             42.1                84.2                   96.9762
             42.2                84.4                   96.9297
             42.3                84.6                   96.8805
             42.4                84.8                   96.8314
             42.5                  85                   96.7816
             42.6                85.2                   96.7289
             42.7                85.4                   96.6717
             42.8                85.6                   96.6145
             42.9                85.8                   96.5568
               43                  86                   96.4991
             43.1                86.2                   96.4389
             43.2                86.4                   96.3755
             43.3                86.6                   96.3094
             43.4                86.8                     96.24
             43.5                  87                   96.1671
             43.6                87.2                   96.0948
             43.7                87.4                   96.0182
             43.8                87.6                   95.9384
             43.9                87.8                   95.8538
               44                  88                   95.7632
             44.1                88.2                   95.6744
             44.2                88.4                   95.5835
             44.3                88.6                     95.49
             44.4                88.8                   95.3955
             44.5                  89                   95.2936
             44.6                89.2                   95.1868
             44.7                89.4                   95.0789
             44.8                89.6                   94.9634
             44.9                89.8                   94.8445
               45                  90                   94.7148
             45.1                90.2                    94.583
             45.2                90.4                    94.447
             45.3                90.6                   94.3057
             45.4                90.8                   94.1589
             45.5                  91                   94.0074
             45.6                91.2                   93.8473
             45.7                91.4                    93.678
             45.8                91.6                   93.5014
             45.9                91.8                   93.3193
               46                  92                    93.133
             46.1                92.2                   92.9358
             46.2                92.4                    92.724
             46.3                92.6                   92.5042
             46.4                92.8                   92.2817
             46.5                  93                   92.0474
             46.6                93.2                   91.7988
             46.7                93.4                   91.5392
             46.8                93.6                   91.2707
             46.9                93.8                   90.9869
               47                  94                   90.6938
             47.1                94.2                   90.3888
             47.2                94.4                   90.0663
             47.3                94.6                    89.714
             47.4                94.8                   89.3546
             47.5                  95                   88.9837
             47.6                95.2                   88.5922
             47.7                95.4                   88.1763
             47.8                95.6                   87.7379
             47.9                95.8                   87.2776
               48                  96                   86.7758
             48.1                96.2                   86.2377
             48.2                96.4                   85.6456
             48.3                96.6                   84.9911
             48.4                96.8                   84.2784
             48.5                  97                   83.4693
             48.6                97.2                   82.5492
             48.7                97.4                    81.519
             48.8                97.6                   80.3537
             48.9                97.8                   79.0501
               49                  98                   77.5774
             49.1                98.2                   75.9234
             49.2                98.4                   74.0848
             49.3                98.6                   72.0692
             49.4                98.8                   69.8627
             49.5                  99                    67.469
             49.6                99.2                   64.9489
             49.7                99.4                   62.2867
             49.8                99.6                   59.4494
             49.9                99.8                   56.4676
               50                 100                   53.3521
             50.1               100.2                    50.039
             50.2               100.4                   46.6139
             50.3               100.6                   43.0036
             50.4               100.8                   39.2887
             50.5                 101                   35.5915
             50.6               101.2                   31.9968
             50.7               101.4                   28.4832
             50.8               101.6                   25.1772
             50.9               101.8                   22.0468
               51                 102                   19.1971
             51.1               102.2                   16.6469
             51.2               102.4                   14.3664
             51.3               102.6                   12.3264
             51.4               102.8                   10.4771
             51.5                 103                   8.85443
             51.6               103.2                   7.50603
             51.7               103.4                   6.40342
             51.8               103.6                   5.50761
             51.9               103.8                   4.77146
               52                 104                   4.15585
             52.1               104.2                    3.6425
             52.2               104.4                   3.22226
             52.3               104.6                   2.85274
             52.4               104.8                    2.5396
             52.5                 105                    2.2656
             52.6               105.2                   2.01467
             52.7               105.4                   1.78422
             52.8               105.6                   1.57773
             52.9               105.8                    1.3886
               53                 106                   1.21998
             53.1               106.2                   1.06461
             53.2               106.4                   0.92243
             53.3               106.6                   0.79597
             53.4               106.8                  0.683321
             53.5                 107                   0.58985
             53.6               107.2                  0.511759
             53.7               107.4                  0.440981
             53.8               107.6                  0.379582
             53.9               107.8                  0.328621
               54                 108                  0.284466
             54.1               108.2                   0.24778
             54.2               108.4                  0.212425
             54.3               108.6                  0.178553
             54.4               108.8                  0.147211
             54.5                 109                  0.121592
             54.6               109.2                 0.0992497
             54.7               109.4                 0.0794993
             54.8               109.6                 0.0616873
             54.9               109.8                 0.0468299
               55                 110                 0.0343226
             55.1               110.2                 0.0250646
             55.2               110.4                 0.0183335
             55.3               110.6                 0.0125249
             55.4               110.8                0.00856959
             55.5                 111                0.00566982
             55.6               111.2                0.00306731
             55.7               111.4                 0.0017182
             55.8               111.6                0.00076169
             55.9               111.8               0.000373145
               56                 112               0.000115764

